File: i-t_example1.txt
Oct. 19, 2022   13:05:27
Amperometric i-t Curve
File: f:\Data Source:  Experiment
Instrument Model:  CHI760E
Ref. Electrode:
Header:
Note:

Init E (V) = 0.5
Sample Interval (s) = 0.1
Run Time (sec) = 150
Quiet Time (sec) = 0.2
Sensitivity (A/V) = 1e-9

Time/sec, Current/A

1.00000e-1, -3.20723e-9
6.00000e-1, -3.12859e-9
1.10000e+0, -3.08962e-9
1.60000e+0, -3.06506e-9
2.10000e+0, -3.04760e-9
2.60000e+0, -3.03483e-9
3.10000e+0, -3.02484e-9
3.60000e+0, -3.01659e-9
4.10000e+0, -3.00968e-9
4.60000e+0, -3.00387e-9
5.10000e+0, -2.99893e-9
5.60000e+0, -2.99445e-9
6.10000e+0, -2.99038e-9
6.60000e+0, -2.98710e-9
7.10000e+0, -2.98366e-9
7.60000e+0, -2.98056e-9
8.09999e+0, -2.97794e-9
8.60000e+0, -2.97545e-9
9.10000e+0, -2.97342e-9
9.60000e+0, -2.97086e-9
1.01000e+1, -2.96906e-9
1.06000e+1, -2.96693e-9
1.11000e+1, -2.96540e-9
1.16000e+1, -2.96378e-9
1.21000e+1, -2.96236e-9
1.26000e+1, -2.96025e-9
1.31000e+1, -2.95937e-9
1.36000e+1, -2.95755e-9
1.41000e+1, -2.95643e-9
1.46000e+1, -2.95523e-9
1.51000e+1, -2.95370e-9
1.56000e+1, -2.95309e-9
1.61000e+1, -2.95173e-9
1.66000e+1, -2.95058e-9
1.71000e+1, -2.94951e-9
1.76000e+1, -2.94861e-9
1.81000e+1, -2.94741e-9
1.86000e+1, -2.94674e-9
1.91000e+1, -2.94585e-9
1.96000e+1, -2.94519e-9
2.01000e+1, -2.94419e-9
2.06000e+1, -2.94342e-9
2.11000e+1, -2.94281e-9
2.16000e+1, -2.94184e-9
2.21000e+1, -2.94096e-9
2.26000e+1, -2.94043e-9
2.31001e+1, -2.93953e-9
2.36001e+1, -2.93853e-9
2.41001e+1, -2.93808e-9
2.46001e+1, -2.93756e-9
2.51001e+1, -2.93683e-9
2.56001e+1, -2.93629e-9
2.61001e+1, -2.93589e-9
2.66001e+1, -2.93494e-9
2.71001e+1, -2.93420e-9
2.76001e+1, -2.93379e-9
2.81001e+1, -2.93310e-9
2.86001e+1, -2.93245e-9
2.91001e+1, -2.93191e-9
2.96001e+1, -2.93166e-9
3.01001e+1, -2.93102e-9
3.06001e+1, -2.93041e-9
3.11001e+1, -2.92983e-9
3.16001e+1, -2.92956e-9
3.21001e+1, -2.92907e-9
3.26001e+1, -2.92847e-9
3.31001e+1, -2.92802e-9
3.36001e+1, -2.92771e-9
3.41001e+1, -2.92738e-9
3.46000e+1, -2.92688e-9
3.51000e+1, -2.92631e-9
3.56000e+1, -2.92573e-9
3.61000e+1, -2.92544e-9
3.66000e+1, -2.92506e-9
3.71000e+1, -2.92470e-9
3.76000e+1, -2.92432e-9
3.81000e+1, -2.92392e-9
3.86000e+1, -2.92359e-9
3.91000e+1, -2.92283e-9
3.96000e+1, -2.92250e-9
4.01000e+1, -2.92216e-9
4.06000e+1, -2.92198e-9
4.10999e+1, -2.92178e-9
4.15999e+1, -2.92111e-9
4.20999e+1, -2.92070e-9
4.25999e+1, -2.92012e-9
4.30999e+1, -2.92007e-9
4.35999e+1, -2.91935e-9
4.40999e+1, -2.91952e-9
4.45999e+1, -2.91877e-9
4.50999e+1, -2.91847e-9
4.55999e+1, -2.91798e-9
4.60999e+1, -2.91812e-9
4.65999e+1, -2.91766e-9
4.70999e+1, -2.91717e-9
4.75998e+1, -2.91704e-9
4.80998e+1, -2.91661e-9
4.85998e+1, -2.91628e-9
4.90998e+1, -2.91574e-9
4.95998e+1, -2.91366e-9
5.00998e+1, -2.90952e-9
5.05998e+1, -2.90943e-9
5.10998e+1, -2.90904e-9
5.15998e+1, -2.90878e-9
5.20998e+1, -2.90874e-9
5.25998e+1, -2.90859e-9
5.30998e+1, -2.90833e-9
5.35998e+1, -2.90803e-9
5.40997e+1, -2.90770e-9
5.45997e+1, -2.90713e-9
5.50997e+1, -2.90087e-9
5.55997e+1, -2.90067e-9
5.60997e+1, -2.90039e-9
5.65997e+1, -2.89997e-9
5.70997e+1, -2.89979e-9
5.75997e+1, -2.89965e-9
5.80997e+1, -2.89952e-9
5.85997e+1, -2.89920e-9
5.90997e+1, -2.89902e-9
5.95997e+1, -2.89883e-9
6.00997e+1, -2.89842e-9
6.05996e+1, -2.89841e-9
6.10996e+1, -2.89793e-9
6.15996e+1, -2.89774e-9
6.20996e+1, -2.89764e-9
6.25996e+1, -2.89718e-9
6.30996e+1, -2.89705e-9
6.35996e+1, -2.89698e-9
6.40996e+1, -2.89693e-9
6.45996e+1, -2.89631e-9
6.50996e+1, -2.89597e-9
6.55996e+1, -2.89598e-9
6.60996e+1, -2.89578e-9
6.65996e+1, -2.89538e-9
6.70995e+1, -2.89484e-9
6.75995e+1, -2.89511e-9
6.80995e+1, -2.89476e-9
6.85995e+1, -2.89460e-9
6.90995e+1, -2.89443e-9
6.95995e+1, -2.89417e-9
7.00995e+1, -2.89367e-9
7.05995e+1, -2.89355e-9
7.10995e+1, -2.89317e-9
7.15995e+1, -2.89326e-9
7.20995e+1, -2.89163e-9
7.25995e+1, -2.89152e-9
7.30995e+1, -2.89143e-9
7.35994e+1, -2.88731e-9
7.40994e+1, -2.88673e-9
7.45994e+1, -2.88672e-9
7.50994e+1, -2.88642e-9
7.55994e+1, -2.88652e-9
7.60994e+1, -2.88563e-9
7.65994e+1, -2.88512e-9
7.70994e+1, -2.87972e-9
7.75994e+1, -2.87962e-9
7.80994e+1, -2.87921e-9
7.85994e+1, -2.87917e-9
7.90994e+1, -2.87856e-9
7.95994e+1, -2.87851e-9
8.00993e+1, -2.87838e-9
8.05993e+1, -2.87813e-9
8.10993e+1, -2.87792e-9
8.15993e+1, -2.87778e-9
8.20993e+1, -2.87769e-9
8.25993e+1, -2.87744e-9
8.30993e+1, -2.87739e-9
8.35993e+1, -2.87706e-9
8.40993e+1, -2.87718e-9
8.45993e+1, -2.87696e-9
8.50993e+1, -2.87643e-9
8.55993e+1, -2.87649e-9
8.60993e+1, -2.87612e-9
8.65993e+1, -2.87267e-9
8.70992e+1, -2.86856e-9
8.75992e+1, -2.86877e-9
8.80992e+1, -2.86891e-9
8.85992e+1, -2.86817e-9
8.90992e+1, -2.86838e-9
8.95992e+1, -2.86810e-9
9.00992e+1, -2.86804e-9
9.05992e+1, -2.86808e-9
9.10992e+1, -2.86786e-9
9.15992e+1, -2.86772e-9
9.20992e+1, -2.86741e-9
9.25992e+1, -2.86152e-9
9.30992e+1, -2.86123e-9
9.35991e+1, -2.86117e-9
9.40991e+1, -2.86130e-9
9.45991e+1, -2.86143e-9
9.50991e+1, -2.86129e-9
9.55991e+1, -2.86160e-9
9.60991e+1, -2.86067e-9
9.65991e+1, -2.86045e-9
9.70991e+1, -2.85997e-9
9.75991e+1, -2.86017e-9
9.80991e+1, -2.86010e-9
9.85991e+1, -2.85968e-9
9.90991e+1, -2.85966e-9
9.95991e+1, -2.85947e-9
1.00099e+2, -2.85938e-9
1.00599e+2, -2.85901e-9
1.01099e+2, -2.85895e-9
1.01599e+2, -2.85881e-9
1.02099e+2, -2.85871e-9
1.02599e+2, -2.85875e-9
1.03099e+2, -2.85823e-9
1.03599e+2, -2.85808e-9
1.04099e+2, -2.85803e-9
1.04599e+2, -2.85793e-9
1.05099e+2, -2.85772e-9
1.05599e+2, -2.85486e-9
1.06099e+2, -2.85271e-9
1.06599e+2, -2.85255e-9
1.07099e+2, -2.85248e-9
1.07599e+2, -2.85271e-9
1.08099e+2, -2.85265e-9
1.08599e+2, -2.85241e-9
1.09099e+2, -2.85247e-9
1.09599e+2, -2.85228e-9
1.10099e+2, -2.85238e-9
1.10599e+2, -2.85210e-9
1.11099e+2, -2.85203e-9
1.11599e+2, -2.85181e-9
1.12099e+2, -2.85178e-9
1.12599e+2, -2.85107e-9
1.13099e+2, -2.85095e-9
1.13599e+2, -2.85075e-9
1.14099e+2, -2.85089e-9
1.14599e+2, -2.85076e-9
1.15099e+2, -2.85033e-9
1.15599e+2, -2.84839e-9
1.16099e+2, -2.84533e-9
1.16599e+2, -2.84468e-9
1.17099e+2, -2.84490e-9
1.17599e+2, -2.84475e-9
1.18099e+2, -2.83798e-9
1.18599e+2, -2.83896e-9
1.19099e+2, -2.83863e-9
1.19599e+2, -2.83872e-9
1.20099e+2, -2.83874e-9
1.20599e+2, -2.83859e-9
1.21099e+2, -2.83841e-9
1.21599e+2, -2.83830e-9
1.22099e+2, -2.83852e-9
1.22599e+2, -2.83824e-9
1.23099e+2, -2.83802e-9
1.23599e+2, -2.83812e-9
1.24099e+2, -2.83787e-9
1.24599e+2, -2.83789e-9
1.25099e+2, -2.83775e-9
1.25599e+2, -2.83742e-9
1.26099e+2, -2.83713e-9
1.26599e+2, -2.83730e-9
1.27099e+2, -2.83715e-9
1.27599e+2, -2.83693e-9
1.28099e+2, -2.83700e-9
1.28599e+2, -2.83690e-9
1.29099e+2, -2.83632e-9
1.29599e+2, -2.83660e-9
1.30099e+2, -2.83608e-9
1.30599e+2, -2.83635e-9
1.31099e+2, -2.83634e-9
1.31599e+2, -2.83609e-9
1.32099e+2, -2.83591e-9
1.32599e+2, -2.83581e-9
1.33099e+2, -2.83608e-9
1.33599e+2, -2.83541e-9
1.34099e+2, -2.83554e-9
1.34599e+2, -2.83545e-9
1.35099e+2, -2.83524e-9
1.35599e+2, -2.83535e-9
1.36099e+2, -2.83508e-9
1.36599e+2, -2.83516e-9
1.37099e+2, -2.83501e-9
1.37599e+2, -2.83456e-9
1.38099e+2, -2.83491e-9
1.38599e+2, -2.83436e-9
1.39099e+2, -2.83460e-9
1.39599e+2, -2.83423e-9
1.40099e+2, -2.83458e-9
1.40599e+2, -2.83419e-9
1.41099e+2, -2.83375e-9
1.41599e+2, -2.83386e-9
1.42099e+2, -2.83386e-9
1.42600e+2, -2.83377e-9
1.43100e+2, -2.83323e-9
1.43600e+2, -2.83338e-9
1.44100e+2, -2.83342e-9
1.44600e+2, -2.83340e-9
1.45100e+2, -2.83314e-9
1.45600e+2, -2.83327e-9
1.46100e+2, -2.83305e-9
1.46600e+2, -2.83269e-9
1.47100e+2, -2.83275e-9
1.47600e+2, -2.83238e-9
1.48100e+2, -2.83256e-9
1.48600e+2, -2.83230e-9
1.49100e+2, -2.83208e-9
1.49600e+2, -2.83256e-9
1.50000e+2, -2.83210e-9